# XDI/1.0 Athena/0.9.26
# Element.edge:                  K
# Element.symbol:                Cd
# Column.1:                      energy eV
# Column.2:                      norm
# Column.3:                      nbkg
# Column.4:                      flat
# Column.5:                      fbkg
# Column.6:                      nder
# Column.7:                      nsec
# Athena.e0:                     26716.57
# Athena.eshift:                 0
# Athena.rbkg:                   1.0
# Athena.importance:             1
# Athena.standard:               None
# Athena.bkg_kweight:            2
# Athena.edge_step:              0.4022605
# Athena.fixed_step:             no
# Athena.pre_edge_range:         -150.000 -60.000
# Athena.pre_edge_line:          -0.768122 - 3.22875e-006 * E
# Athena.normalization_range:    150.000 1019.768
# Athena.post_edge_polynomial:   16.905082 - 0.00108427 * E + 1.62668543e-008 * E^2 + 0 * E^3
# Athena.spline_range_energy:    0.000 1119.818
# Athena.clamps:                 0 24
# Athena.spline_range_k:         0.000 17.144
# Athena.kweight:                2
# Athena.window:                 hanning
# Athena.phase_correction:       no
# Athena.k_range:                3.000 14
# Athena.dk:                     1
# Athena.r_range:                1 3
# Athena.dr:                     0.0
# Athena.window:                 hanning
# Athena.plot_multiplier:        1
# Athena.y_offset:               0
# ///
#------------------------
#   e         norm        nbkg        flat        fbkg        nder        nsec
  26484.959       0.64197319E-02   0.64197328E-02   0.64197326E-02   0.64197328E-02  -0.91626751E-05  -0.92818685E-05
  26495.314       0.63248524E-02   0.63248533E-02   0.63248531E-02   0.63248533E-02  -0.10527642E-03  -0.33963650E-06
  26504.732       0.43381012E-02   0.43381018E-02   0.43381017E-02   0.43381018E-02  -0.15878308E-04   0.69904966E-05
  26515.104       0.60106207E-02   0.60106215E-02   0.60106214E-02   0.60106215E-02   0.33065505E-04  -0.51578350E-05
  26524.539       0.49930296E-02   0.49930303E-02   0.49930302E-02   0.49930303E-02  -0.11803954E-03  -0.67302363E-05
  26534.924       0.36710769E-02   0.36710775E-02   0.36710773E-02   0.36710775E-02  -0.10032778E-03  -0.16862003E-05
  26545.316       0.29085194E-02   0.29085198E-02   0.29085197E-02   0.29085198E-02  -0.15307373E-03  -0.13937413E-06
  26554.773       0.63271650E-03   0.63271670E-03   0.63271658E-03   0.63271670E-03  -0.10309422E-03   0.71921805E-05
  26565.182       0.86044967E-03   0.86044989E-03   0.86044977E-03   0.86044989E-03  -0.10193869E-04   0.70210387E-05
  26574.652       0.43007258E-03   0.43007275E-03   0.43007263E-03   0.43007275E-03   0.36477011E-04   0.87443233E-07
  26585.078       0.15861963E-02   0.15861966E-02   0.15861965E-02   0.15861966E-02  -0.84540986E-05  -0.13007531E-04
  26594.563       0.26174302E-03   0.26174317E-03   0.26174305E-03   0.26174317E-03  -0.22251593E-03  -0.38639203E-05
  26605.004      -0.28476562E-02  -0.28476564E-02  -0.28476565E-02  -0.28476564E-02  -0.85446574E-04   0.14269611E-04
  26615.451      -0.15230650E-02  -0.15230651E-02  -0.15230652E-02  -0.15230651E-02   0.75547711E-04   0.10549103E-04
  26624.959      -0.13401016E-02  -0.13401016E-02  -0.13401017E-02  -0.13401016E-02   0.12506077E-03  -0.37970517E-05
  26635.422       0.97452368E-03   0.97452392E-03   0.97452379E-03   0.97452392E-03  -0.28320795E-06  -0.13319071E-05
  26644.943      -0.13457612E-02  -0.13457612E-02  -0.13457614E-02  -0.13457612E-02   0.98443942E-04   0.17557428E-04
  26655.424       0.29435994E-02   0.29435999E-02   0.29435997E-02   0.29435999E-02   0.35090046E-03   0.21546940E-04
  26664.959       0.56778624E-02   0.56778632E-02   0.56778631E-02   0.56778632E-02   0.52972749E-03   0.41585015E-04
  26675.455       0.13554571E-01   0.13554572E-01   0.13554572E-01   0.13554572E-01   0.11838899E-02   0.44491321E-04
  26685.006       0.29411303E-01   0.29411307E-01   0.29411306E-01   0.29411307E-01   0.14216450E-02   0.59164805E-04
  26685.963       0.28493216E-01   0.28493220E-01   0.28493220E-01   0.28493220E-01   0.18055937E-02   0.33638035E-03
  26687.873       0.34587940E-01   0.34587944E-01   0.34587944E-01   0.34587944E-01   0.23860475E-02   0.19811736E-03
  26688.826       0.35324470E-01   0.35324474E-01   0.35324474E-01   0.35324474E-01   0.23728037E-02   0.69951742E-03
  26689.783       0.39119995E-01   0.39120000E-01   0.39119999E-01   0.39120000E-01   0.37221257E-02   0.55236501E-03
  26691.693       0.45995805E-01   0.45995810E-01   0.45995810E-01   0.45995810E-01   0.39564341E-02   0.28123065E-03
  26692.652       0.50471005E-01   0.50471010E-01   0.50471010E-01   0.50471010E-01   0.45289765E-02   0.12543088E-03
  26693.607       0.54664266E-01   0.54664272E-01   0.54664272E-01   0.54664272E-01   0.41965088E-02   0.11678522E-02
  26694.561       0.58482140E-01   0.58482147E-01   0.58482147E-01   0.58482147E-01   0.67584062E-02   0.10206323E-02
  26696.475       0.74047375E-01   0.74047383E-01   0.74047383E-01   0.74047383E-01   0.71236824E-02   0.61745511E-03
  26697.432       0.78934232E-01   0.78934241E-01   0.78934241E-01   0.78934241E-01   0.85311199E-02   0.30906680E-02
  26698.387       0.90358876E-01   0.90358886E-01   0.90358886E-01   0.90358886E-01   0.13033040E-01   0.20209127E-02
  26700.299       0.11629996       0.11629997       0.11629997       0.11629997       0.14325077E-01   0.17245964E-02
  26701.256       0.13145752       0.13145754       0.13145754       0.13145754       0.17980907E-01   0.55868843E-02
  26702.213       0.15071541       0.15071543       0.15071543       0.15071543       0.25018373E-01   0.35862960E-02
  26704.127       0.20328527       0.20328529       0.20328529       0.20328529       0.28277162E-01   0.20102261E-02
  26705.082       0.23184259       0.23184262       0.23184262       0.23184262       0.30785712E-01   0.59430104E-02
  26706.039       0.26214755       0.26214758       0.26214758       0.26214758       0.39640198E-01   0.39318093E-02
  26707.953       0.34564960       0.34564964       0.34564964       0.34564964       0.42073937E-01   0.49461813E-03
  26708.910       0.38294182       0.38294187       0.38294187       0.38294187       0.41060247E-01   0.10362325E-02
  26709.867       0.42423891       0.42423896       0.42423896       0.42423896       0.44057286E-01   0.43166138E-02
  26710.824       0.46726747       0.46726752       0.46726752       0.46726752       0.49322246E-01   0.18068189E-02
  26712.738       0.56584308       0.56584315       0.56584315       0.56584315       0.49244663E-01  -0.10636853E-02
  26713.695       0.60864889       0.60864896       0.60864896       0.60864896       0.46268405E-01   0.97241384E-03
  26714.652       0.65440081       0.65440088       0.65440088       0.65440088       0.51105863E-01   0.66896947E-03
  26716.570       0.75557825        1.1373760       0.75557822        1.1373758       0.48191692E-01  -0.36069700E-02
  26717.525       0.79285554       0.93900397       0.79335844       0.93950679       0.40743038E-01  -0.45563248E-02
  26718.482       0.83347894       0.93807337       0.83448575       0.93908009       0.39479999E-01  -0.25374340E-02
  26720.400       0.90636054       0.93656440       0.90837706       0.93858082       0.33447915E-01  -0.59724567E-02
  26721.357       0.92964169       0.93597478       0.93216190       0.93849488       0.22309187E-01  -0.84070787E-02
  26722.316       0.94910494       0.93548334       0.95212981       0.93850810       0.17339952E-01  -0.72571815E-02
  26723.275       0.96289972       0.93508420       0.96642918       0.93861355       0.83899126E-02  -0.48431954E-02
  26725.189       0.97320916       0.93453473       0.97774547       0.93907092       0.34254520E-02  -0.33592214E-02
  26726.148       0.97274105       0.93436882       0.97778172       0.93940938      -0.12611305E-02  -0.34759968E-02
  26727.107       0.97079031       0.93426631       0.97633528       0.93981116      -0.32415098E-02  -0.64210076E-03
  26729.025       0.96341522       0.93422259       0.96996854       0.94077580      -0.31084544E-02   0.20886294E-03
  26729.980       0.96185972       0.93426664       0.96891501       0.94132182      -0.26414465E-02   0.12392991E-03
  26730.939       0.95835949       0.93434531       0.96591877       0.94190449      -0.28712526E-02  -0.14258791E-03
  26732.857       0.95359913       0.93457726       0.96216617       0.94314420      -0.30516719E-02  -0.18418336E-03
  26733.816       0.94957983       0.93471608       0.95865065       0.94378678      -0.34011481E-02  -0.17813151E-03
  26734.775       0.94707573       0.93486092       0.95665023       0.94443532      -0.33933282E-02   0.72787341E-04
  26736.693       0.93981723       0.93516071       0.95039890       0.94574228      -0.31917389E-02   0.27164230E-03
  26737.652       0.93789309       0.93531519       0.94897824       0.94640023      -0.26118133E-02  -0.18847177E-03
  26738.611       0.93480777       0.93547245       0.94639632       0.94706089      -0.35532277E-02  -0.43381641E-03
  26739.572       0.93107090       0.93563260       0.94316382       0.94772541      -0.34447408E-02   0.10741722E-03
  26741.488       0.92489725       0.93595869       0.93799554       0.94905687      -0.32441884E-02   0.11845565E-03
  26742.449       0.92173737       0.93612521       0.93533981       0.94972755      -0.31039439E-02  -0.85642677E-04
  26743.408       0.91893768       0.93629307       0.93304315       0.95039844      -0.34086223E-02   0.28752008E-04
  26745.326       0.91193076       0.93663299       0.92704206       0.95174419      -0.30212244E-02   0.39254708E-03
  26746.287       0.91023957       0.93680497       0.92585472       0.95242001      -0.22784793E-02   0.42958218E-03
  26747.248       0.90755152       0.93697777       0.92367045       0.95309659      -0.21955674E-02   0.26948676E-03
  26749.166       0.90391854       0.93732423       0.92104269       0.95444828      -0.15026269E-02   0.56959109E-03
  26750.127       0.90322546       0.93749818       0.92085317       0.95512579      -0.55571467E-03   0.75200182E-03
  26751.086       0.90285156       0.93767171       0.92098171       0.95580175      -0.58783421E-04   0.74961270E-03
  26752.047       0.90311260       0.93784534       0.92174614       0.95647878       0.88354172E-03   0.94291580E-03
  26753.008       0.90454973       0.93801847       0.92368661       0.95715525       0.17535007E-02   0.71165474E-03
  26753.967       0.90647932       0.93819054       0.92611840       0.95782952       0.22499188E-02   0.67462496E-03
  26754.926       0.90886508       0.93836169       0.92900629       0.95850281       0.30474314E-02   0.95841709E-03
  26755.889       0.91233648       0.93853241       0.93298185       0.95917767       0.40919965E-02   0.89949550E-03
  26756.848       0.91672989       0.93870106       0.93787725       0.95984831       0.47762618E-02   0.62904033E-03
  26757.809       0.92150690       0.93886848       0.94315721       0.96051868       0.52997539E-02   0.19406801E-03
  26758.771       0.92692132       0.93903427       0.94907503       0.96118788       0.51494546E-02   0.59066239E-04
  26759.730       0.93139900       0.93919753       0.95405448       0.96185290       0.54132201E-02   0.28431403E-03
  26760.689       0.93730388       0.93935857       0.96046104       0.96251562       0.56947689E-02  -0.77353376E-04
  26761.650       0.94233296       0.93951749       0.96599278       0.96317720       0.52647017E-02  -0.30908393E-03
  26762.613       0.94743316       0.93967406       0.97159661       0.96383740       0.51000914E-02  -0.15211176E-03
  26763.574       0.95214554       0.93982741       0.97681150       0.96449326       0.49720386E-02  -0.39314234E-03
  26764.535       0.95698942       0.93997765       0.98215781       0.96514593       0.43444718E-02  -0.67726316E-03
  26765.496       0.96049561       0.94012456       0.98616636       0.96579520       0.36703388E-02  -0.27884153E-03
  26767.416       0.96756367       0.94040724       0.99423787       0.96708133       0.35411294E-02  -0.26593229E-03
  26768.379       0.97070469       0.94054314       0.99788207       0.96772041       0.29036560E-02  -0.80512629E-03
  26769.342       0.97315611       0.94067483        1.0008366       0.96835520       0.19904561E-02  -0.78360798E-03
  26770.303       0.97453433       0.94080181        1.0027168       0.96898417       0.13959943E-02  -0.57163846E-03
  26771.264       0.97583921       0.94092415        1.0045236       0.96960842       0.89176701E-03  -0.32379035E-03
  26773.188       0.97710707       0.94115428        1.0067961       0.97084319       0.46185911E-03  -0.41281891E-03
  26774.148       0.97717121       0.94126127        1.0073614       0.97145135      -0.29880273E-03  -0.70584430E-03
  26775.109       0.97653307       0.94136286        1.0072249       0.97205455      -0.89406780E-03  -0.22763408E-03
  26777.033       0.97459182       0.94154882        1.0062877       0.97324455      -0.95552705E-03  -0.21996102E-04
  26777.996       0.97377447       0.94163271        1.0059727       0.97383087      -0.95757054E-03  -0.35495155E-03
  26778.959       0.97274754       0.94171019        1.0054482       0.97441071      -0.16391637E-02  -0.38329254E-03
  26780.881       0.96904548       0.94184478        1.0027485       0.97554769      -0.20633695E-02  -0.15731864E-03
  26781.844       0.96679472       0.94190172        1.0009999       0.97610677      -0.20930280E-02  -0.36076168E-03
  26782.807       0.96501431       0.94195137       0.99972152       0.97665848      -0.27581965E-02  -0.42754530E-03
  26784.732       0.95882905       0.94202788       0.99453963       0.97773835      -0.33277788E-02  -0.43564458E-03
  26785.695       0.95540368       0.94205434       0.99161609       0.97826664      -0.40163381E-02  -0.24876361E-03
  26787.619       0.94723388       0.94208256       0.98444869       0.97929726      -0.40459594E-02  -0.17071539E-03
  26788.582       0.94372300       0.94208422       0.98143941       0.97980053      -0.45091934E-02  -0.26101734E-03
  26790.508       0.93420682       0.94206294       0.97292622       0.98078223      -0.48000385E-02  -0.24231502E-04
  26791.471       0.92985569       0.94204015       0.96907646       0.98126082      -0.45791982E-02   0.19001811E-03
  26793.398       0.92097294       0.94197060       0.96119677       0.98219432      -0.42508861E-02   0.33661387E-03
  26794.359       0.91757913       0.94192413       0.95830307       0.98264798      -0.36070573E-02   0.42536437E-03
  26796.287       0.91055215       0.94180766       0.95227923       0.98353463      -0.30220084E-02   0.43577179E-03
  26798.213       0.90593231       0.94166083       0.94866117       0.98438959      -0.19275929E-02   0.72227881E-03
  26799.178       0.90497948       0.94157600       0.94821016       0.98480658      -0.93390040E-03   0.54714368E-03
  26801.104       0.90323240       0.94138459       0.94746442       0.98561651      -0.34580050E-03   0.38046626E-03
  26803.031       0.90364711       0.94116413       0.94888069       0.98639760       0.53203610E-03   0.61357835E-03
  26803.996       0.90477105       0.94104303       0.95050607       0.98677795       0.14286681E-02   0.48652793E-03
  26805.926       0.90778311       0.94077981       0.95452079       0.98751740       0.19405344E-02   0.26329286E-03
  26807.854       0.91225763       0.94048940       0.95999664       0.98822830       0.24444519E-02   0.17217108E-03
  26809.781       0.91720647       0.94017230       0.96594598       0.98891171       0.26042539E-02   0.20661652E-03
  26810.744       0.91978392       0.94000398       0.96902332       0.98924327       0.30415737E-02   0.25068645E-03
  26812.676       0.92601182       0.93964686       0.97625387       0.98988880       0.33299912E-02   0.82886209E-04
  26814.604       0.93263769       0.93926514       0.98388001       0.99050735       0.33615145E-02  -0.80610680E-04
  26816.533       0.93897718       0.93885851       0.99121999       0.99110121       0.30190758E-02  -0.22165258E-03
  26818.461       0.94428227       0.93842799       0.99752474       0.99167036       0.25066005E-02  -0.27442783E-03
  26820.393       0.94865266       0.93797304        1.0028966       0.99221686       0.19597844E-02  -0.20448709E-03
  26822.324       0.95185291       0.93749540        1.0070975       0.99273983       0.17166668E-02  -0.28141089E-03
  26823.287       0.95362070       0.93724882        1.0093641       0.99299215       0.11453813E-02  -0.34779702E-03
  26825.219       0.95516879       0.93673769        1.0119129       0.99348172       0.70979446E-03  -0.20105022E-03
  26827.150       0.95636263       0.93620544        1.0141066       0.99394934       0.36872430E-03  -0.17226599E-03
  26829.082       0.95659317       0.93565213        1.0153373       0.99439612       0.44330927E-04  -0.14741837E-03
  26831.012       0.95653384       0.93507925        1.0162767       0.99482198      -0.20060545E-03  -0.12907932E-03
  26832.945       0.95581824       0.93448592        1.0165611       0.99522865      -0.45430248E-03  -0.16142250E-03
  26834.877       0.95477796       0.93387396        1.0165200       0.99561586      -0.82450342E-03  -0.17632209E-03
  26836.811       0.95263071       0.93324301        1.0153726       0.99598483      -0.11359637E-02  -0.65780812E-04
  26839.709       0.94928898       0.93226455        1.0135287       0.99650412      -0.11423563E-02  -0.19109633E-04
  26841.641       0.94711312       0.93159114        1.0123509       0.99682883      -0.12282632E-02  -0.92469815E-04
  26843.576       0.94453929       0.93090049        1.0107765       0.99713755      -0.14999371E-02  -0.12862159E-03
  26845.508       0.94131287       0.93019536        1.0085476       0.99742994      -0.17256429E-02  -0.72912149E-04
  26847.441       0.93786968       0.92947493        1.0061021       0.99770724      -0.17817425E-02  -0.47363118E-04
  26849.377       0.93441931       0.92873903        1.0036507       0.99797032      -0.19088908E-02  -0.67735388E-04
  26851.313       0.93047845       0.92798938        1.0007085       0.99821935      -0.20440140E-02  -0.12560435E-04
  26854.213       0.92453445       0.92684210       0.99625991       0.99856745      -0.19696331E-02   0.32267396E-04
  26856.150       0.92095134       0.92606044       0.99367523       0.99878422      -0.18879366E-02   0.45740893E-04
  26858.084       0.91722625       0.92526842       0.99094672       0.99898879      -0.17925701E-02   0.47200054E-04
  26860.021       0.91401230       0.92446423       0.98873060       0.99918242      -0.17052252E-02   0.25549232E-04
  26862.924       0.90897296       0.92323981       0.98518614       0.99945289      -0.16689118E-02   0.85155587E-04
  26864.861       0.90593477       0.92241095       0.98314502       0.99962110      -0.12930721E-02   0.18054096E-03
  26866.799       0.90396231       0.92157287       0.98216983       0.99978030      -0.96931557E-03   0.11621866E-03
  26869.705       0.90123940       0.92030107       0.98094177        1.0000033      -0.73010891E-03   0.13202373E-03
  26871.641       0.90042712       0.91944463       0.98112497        1.0001424      -0.33005666E-03   0.13490665E-03
  26874.547       0.89964127       0.91814689       0.98183282        1.0003383      -0.76890902E-04   0.19812664E-03
  26876.486       0.90005458       0.91727362       0.98324241        1.0004613       0.62986693E-03   0.28908917E-03
  26878.424       0.90208326       0.91639512       0.98626655        1.0005783       0.10439078E-02   0.13141207E-03
  26881.332       0.90511336       0.91506653       0.99078978        1.0007428       0.12666898E-02   0.13429662E-03
  26883.273       0.90822544       0.91417296       0.99489809        1.0008455       0.16951121E-02   0.75733807E-04
  26886.184       0.91333805       0.91282292        1.0015042        1.0009890       0.16341502E-02  -0.11360124E-03
  26888.121       0.91614780       0.91191817        1.0053074        1.0010777       0.11443733E-02  -0.16779910E-03
  26891.031       0.91888482       0.91054955        1.0095363        1.0012009       0.82082797E-03  -0.19831992E-03
  26892.973       0.92013046       0.90963009        1.0117772        1.0012767       0.18212506E-03  -0.25831198E-03
  26895.883       0.91976849       0.90824345        1.0129059        1.0013808      -0.43250176E-03  -0.17036698E-03
  26898.795       0.91761243       0.90684551        1.0122409        1.0014739      -0.80975151E-03  -0.15476143E-03
  26900.738       0.91583715       0.90590718        1.0114602        1.0015301      -0.11838685E-02  -0.70289005E-04
  26903.652       0.91186238       0.90449185        1.0089764        1.0016057      -0.11511452E-02   0.61170948E-04
  26906.564       0.90913058       0.90306813        1.0077338        1.0016713      -0.82748655E-03   0.12126090E-03
  26908.506       0.90784576       0.90211364        1.0074418        1.0017096      -0.56254478E-03   0.10839895E-03
  26911.422       0.90639774       0.90067316        1.0074839        1.0017592      -0.30088444E-03   0.88145650E-04
  26914.338       0.90609101       0.89922429        1.0086666        1.0017998      -0.48479348E-04   0.82003415E-04
  26916.279       0.90616227       0.89825539        1.0097289        1.0018220       0.97406149E-04   0.19440140E-04
  26919.197       0.90656430       0.89679234        1.0116203        1.0018482       0.45980292E-04  -0.51771507E-04
  26922.115       0.90643061       0.89532188        1.0129752        1.0018664      -0.20473237E-03  -0.11501290E-03
  26925.031       0.90536989       0.89384538        1.0134015        1.0018768      -0.62500497E-03  -0.13587481E-03
  26927.951       0.90278308       0.89236017        1.0123029        1.0018799      -0.99769778E-03  -0.18555796E-03
  26929.896       0.90051609       0.89136735        1.0110269        1.0018781      -0.15277444E-02  -0.17706489E-03
  26932.816       0.89535061       0.88987183        1.0073485        1.0018697      -0.18591185E-02  -0.79119305E-04
  26935.736       0.88965884       0.88837060        1.0031432        1.0018549      -0.19898012E-02  -0.31903574E-04
  26938.656       0.88373017       0.88686405       0.99870031        1.0018341      -0.20454354E-02  -0.15999468E-04
  26941.580       0.87770532       0.88535047       0.99416256        1.0018076      -0.20833021E-02   0.38041631E-04
  26944.502       0.87155118       0.88383334       0.98949381        1.0017759      -0.18230440E-02   0.11470701E-03
  26947.424       0.86705145       0.88231199       0.98647878        1.0017392      -0.14129543E-02   0.12402749E-03
  26950.348       0.86329105       0.88078575       0.98420341        1.0016980      -0.10979793E-02   0.12201565E-03
  26953.270       0.86063266       0.87925708       0.98302834        1.0016527      -0.69965079E-03   0.16303046E-03
  26956.193       0.85920159       0.87772479       0.98308040        1.0016035      -0.14506624E-03   0.19882223E-03
  26959.119       0.85978417       0.87618820       0.98514695        1.0015509       0.46326045E-03   0.17728413E-03
  26962.047       0.86191352       0.87464819       0.98876058        1.0014952       0.89275508E-03   0.11405822E-03
  26964.975       0.86501214       0.87310619       0.99334280        1.0014367       0.11311854E-02   0.40170407E-04
  26967.900       0.86853435       0.87156415       0.99834639        1.0013761       0.11278725E-02  -0.17041131E-04
  26970.828       0.87161358       0.87001930        1.0029078        1.0013135       0.10314436E-02  -0.72000064E-04
  26973.756       0.87457448       0.86847358        1.0073502        1.0012492       0.70624010E-03  -0.15905583E-03
  26976.686       0.87575074       0.86692632        1.0100083        1.0011838       0.99694596E-04  -0.15185962E-03
  26980.590       0.87525580       0.86486459        1.0114867        1.0010954      -0.33156857E-03  -0.11800815E-03
  26983.521       0.87348446       0.86331710        1.0111961        1.0010287      -0.70689110E-03  -0.92526183E-04
  26986.453       0.87111129       0.86176985        1.0103035        1.0009619      -0.87404958E-03  -0.69701604E-04
  26989.387       0.86835729       0.86022269        1.0090303        1.0008956      -0.11157607E-02  -0.59640506E-04
  26992.316       0.86456959       0.85867966        1.0067202        1.0008302      -0.12237219E-02  -0.15194592E-05
  26996.229       0.85998458       0.85662127        1.0041082        1.0007448      -0.11261568E-02   0.18375520E-04
  26999.162       0.85685992       0.85508110        1.0024615        1.0006826      -0.10979231E-02   0.15693020E-04
  27002.098       0.85354087       0.85354180        1.0006213        1.0006222      -0.10340545E-02   0.24311604E-04
  27006.010       0.84977871       0.85149457       0.99882852        1.0005443      -0.93143719E-03   0.49019191E-04
  27008.947       0.84716146       0.84996037       0.99768898        1.0004878      -0.69832208E-03   0.10026528E-03
  27011.885       0.84567607       0.84842803       0.99768111        1.0004330      -0.34237868E-03   0.86543543E-04
  27015.801       0.84481480       0.84638927       0.99878810        1.0003625      -0.10515263E-03   0.72475912E-04
  27018.738       0.84495546       0.84486291        1.0004041        1.0003115       0.15429874E-03   0.83718715E-04
  27021.678       0.84572161       0.84333730        1.0026465        1.0002621       0.38686225E-03   0.29055220E-04
  27025.598       0.84760933       0.84130671        1.0065014        1.0001987       0.35361755E-03  -0.57206764E-04
  27028.539       0.84814778       0.83978588        1.0085149        1.0001529      -0.56333513E-05  -0.11365020E-03
  27032.459       0.84757068       0.83776227        1.0099028        1.0000943      -0.42613651E-03  -0.17212245E-03
  27035.402       0.84522321       0.83624560        1.0090297        1.0000520      -0.11869097E-02  -0.18888866E-03
  27039.326       0.83942018       0.83422678        1.0051915       0.99999804      -0.17232349E-02  -0.13883358E-03
  27042.270       0.83338803       0.83271466        1.0006327       0.99995923      -0.21404187E-02  -0.62948168E-04
  27046.193       0.82472192       0.83070303       0.99392872       0.99990974      -0.21555000E-02   0.64240267E-04
  27049.139       0.81858190       0.82919485       0.98926136       0.99987422      -0.16991523E-02   0.15152732E-03
  27053.066       0.81304365       0.82718770       0.98568507       0.99982903      -0.11140527E-02   0.14961215E-03
  27056.996       0.80982879       0.82518269       0.98443242       0.99978622      -0.52364961E-03   0.18088363E-03
  27059.943       0.80944251       0.82368155       0.98551673       0.99975568       0.12988402E-03   0.14480954E-03
  27063.873       0.81072200       0.82168283       0.98875624       0.99971698       0.47220561E-03   0.54536459E-04
  27067.805       0.81315499       0.81968661       0.99314900       0.99968054       0.55864967E-03   0.67864489E-05
  27070.754       0.81456607       0.81819174       0.99602909       0.99965467       0.51890317E-03  -0.17536792E-04
  27074.689       0.81672712       0.81620005        1.0001492       0.99962206       0.43792639E-03  -0.28563556E-04
  27078.623       0.81801211       0.81421226        1.0033915       0.99959159       0.29413655E-03  -0.58519636E-04
  27081.574       0.81875225       0.81272335        1.0055991       0.99957011       0.35018697E-04  -0.79211883E-04
  27085.512       0.81825335       0.81073935        1.0070573       0.99954323      -0.25155412E-03  -0.54879733E-04
  27089.449       0.81677126       0.80875909        1.0075306       0.99951834      -0.39715920E-03  -0.33875635E-04
  27093.391       0.81512414       0.80677952        1.0078401       0.99949538      -0.51846025E-03  -0.25221132E-04
  27097.332       0.81268424       0.80480361        1.0073550       0.99947430      -0.59597738E-03  -0.18132774E-04
  27100.287       0.81101428       0.80332408        1.0071500       0.99945971      -0.64350386E-03  -0.21886849E-04
  27104.229       0.80824599       0.80135304        1.0063349       0.99944182      -0.74693098E-03  -0.30531569E-04
  27108.174       0.80512323       0.79938351        1.0051655       0.99942567      -0.88430635E-03  -0.49809394E-04
  27112.117       0.80127058       0.79741793        1.0032640       0.99941122      -0.11398275E-02  -0.52139713E-04
  27116.064       0.79612999       0.79545327        1.0000752       0.99939840      -0.12956887E-02  -0.81916308E-05
  27120.012       0.79104112       0.79349096       0.99693742       0.99938717      -0.12045004E-02   0.48157638E-04
  27123.959       0.78662046       0.79153195       0.99446608       0.99937748      -0.91548412E-03   0.84322000E-04
  27127.908       0.78381246       0.78957469       0.99360713       0.99936927      -0.53869389E-03   0.85181561E-04
  27131.859       0.78236478       0.78761915       0.99410823       0.99936250      -0.24254980E-03   0.62215370E-04
  27135.813       0.78189510       0.78566476       0.99558754       0.99935711      -0.46881395E-04   0.29534580E-04
  27139.764       0.78199418       0.78371446       0.99763287       0.99935306      -0.90789393E-05  -0.47698283E-05
  27143.719       0.78182332       0.78176472       0.99940897       0.99935028      -0.84591658E-04  -0.30377654E-04
  27147.674       0.78132506       0.77981747        1.0008564       0.99934872      -0.24936618E-03  -0.38215010E-04
  27151.631       0.77985034       0.77787168        1.0013271       0.99934834      -0.38694881E-03  -0.25697334E-04
  27155.588       0.77826275       0.77592828        1.0016836       0.99934908      -0.45273489E-03  -0.19607333E-04
  27159.547       0.77626649       0.77398624        1.0016312       0.99935089      -0.54216046E-03  -0.22106516E-04
  27163.506       0.77396992       0.77204650        1.0012773       0.99935375      -0.62777428E-03  -0.36022022E-04
  27167.467       0.77129452       0.77010805        1.0005442       0.99935760      -0.82745488E-03  -0.36156249E-04
  27172.422       0.76659234       0.76768630       0.99826991       0.99936378      -0.95014340E-03  -0.22005461E-04
  27176.385       0.76282114       0.76575186       0.99643913       0.99936977      -0.10236996E-02  -0.12305146E-05
  27180.350       0.75847645       0.76381860       0.99403457       0.99937664      -0.95989892E-03   0.45625741E-04
  27184.316       0.75520818       0.76188697       0.99270566       0.99938436      -0.66184183E-03   0.72403606E-04
  27188.281       0.75322738       0.75995791       0.99266245       0.99939289      -0.38566592E-03   0.50265595E-04
  27193.244       0.75176495       0.75754619       0.99362352       0.99940467      -0.21307060E-03   0.31836172E-04
  27197.213       0.75132423       0.75561975       0.99511947       0.99941491      -0.10130523E-03   0.15402897E-04
  27201.184       0.75096059       0.75369431       0.99669221       0.99942585      -0.90771602E-04   0.67645743E-05
  27206.148       0.75051319       0.75129011       0.99866361       0.99944045      -0.40863760E-04   0.14582098E-04
  27210.123       0.75059531       0.74936705        1.0006812       0.99945284       0.39577769E-04   0.11540225E-04
  27214.098       0.75082783       0.74744583        1.0028479       0.99946581       0.50881032E-04  -0.79878084E-05
  27219.068       0.75105044       0.74504627        1.0054870       0.99948278      -0.31873177E-04  -0.32480816E-04
  27223.045       0.75054266       0.74312814        1.0069115       0.99949692      -0.23972483E-03  -0.69339139E-04
  27227.023       0.74914343       0.74121126        1.0074438       0.99951153      -0.58346603E-03  -0.63422332E-04
  27232.000       0.74531772       0.73881539        1.0060328       0.99953039      -0.80767181E-03  -0.34940714E-04
  27235.980       0.74190911       0.73690134        1.0045538       0.99954591      -0.89643001E-03  -0.94485093E-05
  27240.957       0.73728840       0.73451008        1.0023442       0.99956578      -0.89230211E-03   0.59553743E-05
  27244.943       0.73391141       0.73259675        1.0008968       0.99958203      -0.84305199E-03   0.96878203E-05
  27249.924       0.72972875       0.73020796       0.99912358       0.99960270      -0.80543143E-03   0.92270539E-05
  27253.910       0.72668911       0.72829804       0.99801063       0.99961948      -0.76031299E-03   0.18462178E-04
  27258.896       0.72290722       0.72591102       0.99663700       0.99964072      -0.63978877E-03   0.24617594E-04
  27262.885       0.72094700       0.72400290       0.99660203       0.99965785      -0.53937009E-03   0.72345700E-05
  27267.873       0.71806530       0.72161885       0.99612593       0.99967940      -0.57484403E-03  -0.28458972E-05
  27272.863       0.71521121       0.71923593       0.99567639       0.99970103      -0.56776645E-03   0.13933792E-05
  27276.855       0.71296562       0.71733104       0.99535300       0.99971834      -0.56232870E-03   0.17054920E-04
  27281.850       0.71015756       0.71494930       0.99494827       0.99973993      -0.41449389E-03   0.42321222E-04
  27285.844       0.70923974       0.71304622       0.99595070       0.99975710      -0.18190323E-03   0.45677523E-04
  27290.842       0.70852189       0.71066640       0.99763399       0.99977842      -0.37616056E-05   0.27435959E-04
  27295.840       0.70920213       0.70828833        1.0007134       0.99979947       0.92346615E-04  -0.12417892E-04
  27299.840       0.70935282       0.70638632        1.0027827       0.99981608      -0.11549780E-03  -0.46392733E-04
  27304.842       0.70816242       0.70400933        1.0039897       0.99983648      -0.32528077E-03  -0.45538849E-04
  27309.844       0.70609871       0.70163388        1.0043213       0.99985641      -0.57106844E-03  -0.44690229E-04
  27314.852       0.70244603       0.69925708        1.0030649       0.99987583      -0.77262996E-03  -0.29936628E-04
  27318.855       0.69913654       0.69735826        1.0016693       0.99989090      -0.84082739E-03  -0.70943172E-05
  27323.863       0.69486933       0.69498393       0.99979463       0.99990915      -0.83655685E-03   0.14448081E-04
  27328.877       0.69075257       0.69260804       0.99807128       0.99992667      -0.69602872E-03   0.30133846E-04
  27333.889       0.68789095       0.69023431       0.99760007       0.99994336      -0.53443491E-03   0.24825934E-04
  27338.904       0.68539379       0.68786029       0.99749273       0.99995915      -0.44709908E-03   0.16446680E-04
  27343.918       0.68340699       0.68548780       0.99789324       0.99997397      -0.36949116E-03   0.13773165E-04
  27347.934       0.68205729       0.68358825       0.99845420       0.99998509      -0.32272740E-03   0.12468547E-04
  27352.953       0.68049115       0.68121515       0.99927409       0.99999801      -0.25683783E-03   0.84230892E-05
  27357.973       0.67947889       0.67884256        1.0006463        1.0000099      -0.23816801E-03  -0.16185534E-05
  27362.998       0.67809875       0.67646863        1.0016509        1.0000207      -0.27309620E-03  -0.10376296E-04
  27368.023       0.67673427       0.67409575        1.0026692        1.0000306      -0.34244979E-03  -0.12892599E-04
  27373.051       0.67465610       0.67172255        1.0029732        1.0000396      -0.40270549E-03  -0.85502339E-06
  27378.078       0.67268507       0.66935096        1.0033818        1.0000476      -0.35104705E-03  -0.53746722E-06
  27383.107       0.67112598       0.66697958        1.0042012        1.0000547      -0.40811027E-03  -0.20826914E-04
  27388.141       0.66857826       0.66460704        1.0040323        1.0000610      -0.56062829E-03  -0.32424277E-04
  27393.174       0.66548213       0.66223621        1.0033125        1.0000665      -0.73452546E-03  -0.34361037E-04
  27398.213       0.66118012       0.65986383        1.0013875        1.0000712      -0.90671265E-03  -0.16475938E-04
  27403.250       0.65634609       0.65749370       0.99892761        1.0000751      -0.90053701E-03   0.14802412E-04
  27408.291       0.65210450       0.65512304       0.99705995        1.0000784      -0.75753395E-03   0.32225132E-04
  27413.332       0.64870864       0.65275375       0.99603595        1.0000810      -0.57564323E-03   0.26307918E-04
  27419.387       0.64571717       0.64990976       0.99589073        1.0000833      -0.46562129E-03   0.17480817E-04
  27424.430       0.64354117       0.64754271       0.99608302        1.0000845      -0.38164113E-03   0.11753614E-04
  27429.479       0.64186565       0.64517434       0.99677653        1.0000852      -0.34700382E-03   0.86084011E-06
  27434.527       0.64003747       0.64280797       0.99731487        1.0000853      -0.37294922E-03  -0.28417663E-05
  27439.582       0.63809774       0.64043990       0.99774286        1.0000849      -0.37571419E-03   0.39673340E-05
  27444.633       0.63624051       0.63807531       0.99824942        1.0000841      -0.33285535E-03   0.10512152E-04
  27450.699       0.63439739       0.63523772       0.99924237        1.0000826      -0.25885059E-03   0.60462851E-05
  27455.756       0.63336131       0.63287400        1.0005683        1.0000810      -0.26560252E-03  -0.52554777E-05
  27460.818       0.63170975       0.63050966        1.0012791        1.0000789      -0.31203077E-03  -0.10894130E-04
  27465.879       0.63020262       0.62814756        1.0021317        1.0000766      -0.37588379E-03  -0.91225217E-05
  27471.953       0.62752429       0.62531504        1.0022828        1.0000735      -0.41361005E-03  -0.41948119E-05
  27477.020       0.62559459       0.62295415        1.0027111        1.0000706      -0.42261819E-03  -0.12978559E-04
  27482.088       0.62324105       0.62059469        1.0027139        1.0000675      -0.54514774E-03  -0.18169378E-04
  27488.170       0.61951620       0.61776568        1.0018142        1.0000636      -0.62520676E-03  -0.15325169E-04
  27493.242       0.61626750       0.61540863        1.0009192        1.0000602      -0.71608467E-03  -0.35355535E-05
  27499.330       0.61152469       0.61258208       0.99899879        1.0000561      -0.66466353E-03   0.19057369E-04
  27504.404       0.60884852       0.61022856       0.99867265        1.0000526      -0.50336632E-03   0.19778902E-04
  27509.482       0.60641452       0.60787527       0.99858844        1.0000491      -0.46386812E-03   0.89641885E-05
  27515.578       0.60366526       0.60505302       0.99865730        1.0000450      -0.40320047E-03   0.78649900E-05
  27520.662       0.60190674       0.60270169       0.99924675        1.0000416      -0.37593753E-03   0.36547892E-05
  27526.760       0.59946153       0.59988430       0.99961507        1.0000378      -0.36233262E-03   0.34393143E-05
  27531.848       0.59785368       0.59753602        1.0003524        1.0000347      -0.33746536E-03  -0.12018285E-05
  27537.951       0.59568495       0.59472232        1.0009940        1.0000313      -0.37578228E-03  -0.59538767E-06
  27543.041       0.59364755       0.59237822        1.0012982        1.0000288      -0.34412953E-03  -0.27818864E-06
  27549.154       0.59182967       0.58956614        1.0022897        1.0000261      -0.37889883E-03  -0.13596871E-04
  27554.246       0.58940199       0.58722640        1.0021998        1.0000242      -0.49648248E-03  -0.18536392E-04
  27560.363       0.58626460       0.58441893        1.0018681        1.0000224      -0.58667325E-03  -0.72584433E-05
  27565.461       0.58282245       0.58208190        1.0007619        1.0000213      -0.57788592E-03   0.42811420E-05
  27571.582       0.57978129       0.57927927        1.0005227        1.0000206      -0.53864312E-03  -0.16154339E-05
  27577.705       0.57622730       0.57647946       0.99976856        1.0000206      -0.59766529E-03  -0.46162594E-06
  27582.811       0.57307011       0.57414758       0.99894385        1.0000213      -0.54382672E-03   0.86428176E-05
  27588.938       0.57011850       0.57135298       0.99878833        1.0000227      -0.50058052E-03   0.17478666E-05
  27595.070       0.56693349       0.56856003       0.99839867        1.0000251      -0.52239962E-03   0.20655593E-05
  27600.180       0.56424568       0.56623565       0.99803798        1.0000279      -0.47735950E-03   0.69856166E-05
  27606.316       0.56156511       0.56344833       0.99814900        1.0000321      -0.44383938E-03   0.71853923E-05
  27612.455       0.55879755       0.56066380       0.99817134        1.0000375      -0.38915881E-03   0.58145991E-05
  27618.596       0.55678624       0.55788261       0.99894779        1.0000441      -0.37243610E-03   0.31626914E-05
  27623.719       0.55460243       0.55556576       0.99908728        1.0000505      -0.35353426E-03   0.51446345E-05
  27629.861       0.55280368       0.55279209        1.0000711        1.0000595      -0.31448179E-03  -0.51999497E-06
  27636.012       0.55073651       0.55001881        1.0007876        1.0000699      -0.35992655E-03  -0.25517913E-05
  27642.166       0.54837478       0.54724873        1.0012078        1.0000817      -0.34588158E-03  -0.29930213E-05
  27647.293       0.54683462       0.54494445        1.0019830        1.0000928      -0.39369083E-03  -0.13801882E-04
  27653.451       0.54393198       0.54218110        1.0018585        1.0001075      -0.50163582E-03  -0.12730516E-04
  27659.611       0.54065547       0.53942161        1.0013579        1.0001240      -0.55050533E-03  -0.26671236E-05
  27665.771       0.53714975       0.53666696        1.0006251        1.0001422      -0.53449478E-03   0.65319885E-05
  27671.939       0.53406622       0.53391365        1.0003150        1.0001623      -0.46997897E-03   0.68629564E-05
  27678.107       0.53135209       0.53116534        1.0003712        1.0001844      -0.44983335E-03   0.14321249E-05
  27684.277       0.52851617       0.52842122        1.0003034        1.0002084      -0.45230942E-03  -0.32823849E-05
  27690.451       0.52576879       0.52568047        1.0003229        1.0002345      -0.49035111E-03  -0.32947250E-05
  27696.629       0.52245936       0.52294319       0.99977906        1.0002628      -0.49300586E-03  -0.46536265E-06
  27702.809       0.51967622       0.52021034       0.99975930        1.0002934      -0.49610206E-03   0.92888772E-06
  27708.990       0.51632704       0.51748245       0.99917086        1.0003262      -0.48152388E-03   0.68396978E-05
  27715.174       0.51372218       0.51475870       0.99932499        1.0003615      -0.41152920E-03   0.73049942E-05
  27721.363       0.51123519       0.51203832       0.99959613        1.0003992      -0.39113919E-03   0.53052755E-05
  27727.555       0.50887948       0.50932225       0.99999678        1.0004395      -0.34584458E-03   0.30877141E-05
  27733.746       0.50695259       0.50661234        1.0008227        1.0004824      -0.35290402E-03  -0.23008273E-05
  27739.941       0.50450841       0.50390647        1.0011300        1.0005280      -0.37434263E-03  -0.10240971E-05
  27746.141       0.50231262       0.50120430        1.0016848        1.0005764      -0.36559771E-03  -0.80793070E-06
  27752.344       0.49997390       0.49850679        1.0020949        1.0006278      -0.38436339E-03  -0.64288527E-05
  27758.547       0.49754420       0.49581531        1.0024109        1.0006820      -0.44535405E-03  -0.13137418E-04
  27764.754       0.49444706       0.49312823        1.0020582        1.0007393      -0.54739875E-03  -0.12251521E-04
  27770.965       0.49074661       0.49044561        1.0011007        1.0007997      -0.59749344E-03   0.10867881E-05
  27778.213       0.48640540       0.48732306       0.99995657        1.0008742      -0.53277167E-03   0.12979756E-04
  27784.430       0.48357284       0.48465159       0.99986291        1.0009416      -0.42272103E-03   0.83891940E-05
  27790.646       0.48114971       0.48198701        1.0001751        1.0010124      -0.42846882E-03  -0.34453954E-05
  27796.869       0.47824311       0.47932598        1.0000038        1.0010866      -0.46557830E-03  -0.28343913E-05
  27803.094       0.47535419       0.47667073       0.99984790        1.0011644      -0.46375133E-03   0.54841304E-05
  27810.359       0.47198711       0.47358035       0.99966649        1.0012597      -0.39159738E-03   0.95002815E-05
  27816.588       0.47006997       0.47093804        1.0004773        1.0013454      -0.33555453E-03   0.10308369E-05
  27822.822       0.46780509       0.46830050        1.0009395        1.0014348      -0.37875006E-03  -0.24477201E-05
  27829.059       0.46534658       0.46566867        1.0012062        1.0015282      -0.36608005E-03   0.27189214E-05
  27836.338       0.46285715       0.46260607        1.0018933        1.0016421      -0.34200112E-03   0.33079993E-05
